# wavelength(nm) Y
947.1 0.005636
949.0 0.009704
951.0 0.013542
953.0 0.015990
955.0 0.017656
957.0 0.020595
959.0 0.027149
961.0 0.040870
963.0 0.072085
965.0 0.140830
967.0 0.281585
969.0 0.498987
971.0 0.704989
973.0 0.829993
975.0 0.891626
977.0 0.917341
979.0 0.926848
981.0 0.929649
983.0 0.929859
985.0 0.926238
987.0 0.918669
989.0 0.911761
991.0 0.909313
993.0 0.913184
995.0 0.919925
997.0 0.924966
999.0 0.926261
1001.0 0.923420
1003.0 0.919963
1005.0 0.916932
1007.0 0.915304
1009.0 0.914267
1011.0 0.912611
1013.0 0.911518
1015.0 0.912344
1017.0 0.916392
1019.0 0.922408
1021.0 0.927029
1023.0 0.928726
1025.0 0.926878
1027.0 0.924022
1029.0 0.923831
1031.0 0.927312
1033.0 0.933224
1035.0 0.936957
1037.0 0.935638
1039.0 0.929452
1041.0 0.922064
1043.0 0.917741
1045.0 0.918433
1047.0 0.923855
1049.0 0.929509
1050.9 0.931529
1052.9 0.928094
1054.9 0.919312
1056.9 0.906353
1058.9 0.888201
1060.9 0.858619
1062.9 0.810497
1064.9 0.739769
1066.9 0.645160
1068.9 0.534389
1070.9 0.420575
1072.9 0.317385
1074.9 0.235338
1076.9 0.176229
1078.9 0.133493
1080.9 0.103533
1082.9 0.081831
1084.9 0.065857
1086.9 0.053202
1088.9 0.042391
1090.9 0.033177
1092.9 0.025500
1094.9 0.019295
1096.9 0.014648
1098.9 0.011185
1100.9 0.008795
1102.9 0.007166
1104.9 0.006148
1106.9 0.005457
1108.9 0.004990
1110.9 0.004659
1112.9 0.004413
1114.9 0.004108
